Time (s),Voltage (V),Current (A)
0.11016,0.0,-3.2762e-10
0.13987,0.001,6.959e-11
0.16956,0.002,8.66e-11
0.19927,0.003,7.293e-11
0.22896,0.004,9.67e-11
0.25868,0.005,-2.3925e-10
0.28838,0.006,5.59e-12
0.31808,0.007,3.1806e-10
0.34778,0.008,-7.244e-11
0.37748,0.009,-1.7466e-10
0.40718,0.01,-7.1e-13
0.43688,0.011,-6.85e-11
0.46658,0.012,1.756e-10
0.49628,0.013,6.113e-11
0.52601,0.014,-3.0617e-10
0.55572,0.015,6.547e-11
0.58543,0.016,2.6668e-10
0.61514,0.017,-4.128e-11
0.64492,0.018,-1.124e-11
0.67464,0.019,-1.4288e-10
0.70436,0.02,-6.979e-11
0.73407,0.021,2.7303e-10
0.76378,0.022,-4.27e-11
0.79349,0.023,-3.2812e-10
0.8232,0.024,7.957e-11
0.85291,0.025,9.776e-11
0.88261,0.026,6.483e-11
0.91232,0.027,1.2072e-10
0.94202,0.028,-2.2544e-10
0.97172,0.029,2.12e-12
1.00141,0.03,3.1251e-10
1.03112,0.031,-7.074e-11
1.0608,0.032,-1.9343e-10
1.09056,0.033,3.6e-12
1.12027,0.034,-6.545e-11
1.14997,0.035,1.7678e-10
1.17967,0.036,5.546e-11
1.20938,0.037,-3.016e-10
1.2391,0.038,6.617e-11
1.26881,0.039,2.8089e-10
1.29851,0.04,-3.792e-11
1.3282,0.041,-4.314e-11
1.3579,0.042,-1.2167e-10
1.38766,0.043,-6.91e-11
1.41733,0.044,2.5516e-10
1.44702,0.045,-2.807e-11
1.47673,0.046,-3.2637e-10
1.50643,0.047,7.943e-11
1.53615,0.048,1.373e-10
1.56587,0.049,3.756e-11
1.59557,0.05,9.924e-11
1.62527,0.051,-2.0533e-10
1.65498,0.052,-1.292e-11
1.68477,0.053,3.0259e-10
1.71449,0.054,-7.862e-11
1.74421,0.055,-1.86e-10
1.77391,0.056,2.3e-12
1.8036,0.057,-5.797e-11
1.83338,0.058,1.6561e-10
1.86309,0.059,6.354e-11
1.89279,0.06,-3.0315e-10
1.92255,0.061,6.392e-11
1.95227,0.062,2.5076e-10
1.98198,0.063,-1.953e-11
2.01169,0.064,-1.425e-11
2.04139,0.065,-1.3316e-10
2.07109,0.066,-6.838e-11
2.10077,0.067,2.605e-10
2.13048,0.068,-3.315e-11
2.16018,0.069,-3.2901e-10
2.18989,0.07,8.236e-11
2.2196,0.071,1.1327e-10
2.2493,0.072,4.097e-11
2.27901,0.073,1.0755e-10
2.30873,0.074,-2.1881e-10
2.33844,0.075,-7.65e-12
2.36814,0.076,3.1196e-10
2.39784,0.077,-7.348e-11
2.42754,0.078,-1.933e-10
2.45724,0.079,1.355e-11
2.48694,0.08,-5.553e-11
2.51665,0.081,1.6037e-10
2.54635,0.082,6.811e-11
2.57607,0.083,-3.0133e-10
2.60576,0.084,5.72e-11
2.63548,0.085,2.8334e-10
2.66519,0.086,-5.53e-11
2.6949,0.087,-4.201e-11
2.72462,0.088,-1.1454e-10
2.75434,0.089,-7.686e-11
2.78404,0.09,2.5524e-10
2.81374,0.091,-2.423e-11
2.84344,0.092,-3.2184e-10
2.87316,0.093,8.597e-11
2.90285,0.094,1.3253e-10
2.93256,0.095,2.415e-11
2.96234,0.096,1.0202e-10
2.99204,0.097,-2.2247e-10
3.02174,0.098,-8.12e-12
3.05144,0.099,3.0796e-10
3.08113,0.1,-8.043e-11
3.08569,0.1,2.2737e-10
3.11541,0.099,-2.513e-11
3.14513,0.098,1.835e-11
3.17484,0.097,-1.4799e-10
3.20456,0.096,-7.297e-11
3.23428,0.095,2.875e-10
3.26397,0.094,-4.952e-11
3.29369,0.093,-3.0951e-10
3.32339,0.092,6.569e-11
3.35308,0.091,8.35e-11
3.38278,0.09,7.237e-11
3.41248,0.089,1.0229e-10
3.44218,0.088,-2.3223e-10
3.47189,0.087,1.124e-11
3.50159,0.086,3.0901e-10
3.53129,0.085,-8.18e-11
3.56099,0.084,-1.6343e-10
3.59069,0.083,-1.29e-12
3.62039,0.082,-8.146e-11
3.64984,0.081,1.4336e-10
3.67955,0.08,7.232e-11
3.70925,0.079,-2.8543e-10
3.73896,0.078,5.205e-11
3.76875,0.077,3.0315e-10
3.79845,0.076,-6.34e-11
3.82816,0.075,-5.701e-11
3.85786,0.074,-9.87e-11
3.88756,0.073,-8.519e-11
3.91726,0.072,2.2676e-10
3.94696,0.071,-1.686e-11
3.97672,0.07,-3.2612e-10
4.00618,0.069,6.673e-11
4.03591,0.068,1.8356e-10
4.06563,0.067,-1.08e-12
4.09535,0.066,8.825e-11
4.12507,0.065,-1.7081e-10
4.15478,0.064,-5.415e-11
4.1845,0.063,3.0132e-10
4.21418,0.062,-6.219e-11
4.24388,0.061,-2.6555e-10
4.27365,0.06,2.348e-11
4.30335,0.059,1.754e-11
4.33307,0.058,1.288e-10
4.36277,0.057,6.674e-11
4.39248,0.056,-2.6505e-10
4.42219,0.055,3.99e-11
4.45189,0.054,3.2798e-10
4.48159,0.053,-7.45e-11
4.5113,0.052,-9.985e-11
4.54099,0.051,-5.61e-11
4.57074,0.05,-1.0096e-10
4.60045,0.049,2.1518e-10
4.63015,0.048,-3.61e-12
4.65986,0.047,-3.0475e-10
4.68953,0.046,6.498e-11
4.71924,0.045,1.8249e-10
4.74895,0.044,-7.13e-12
4.77867,0.043,7.695e-11
4.80836,0.042,-1.6651e-10
4.83807,0.041,-5.869e-11
4.86778,0.04,3.0894e-10
4.89748,0.039,-6.087e-11
4.92719,0.038,-2.6639e-10
4.95689,0.037,3.959e-11
4.9866,0.036,2.596e-11
5.0163,0.035,1.1436e-10
5.04602,0.034,9.315e-11
5.07571,0.033,-2.5244e-10
5.10542,0.032,2.253e-11
5.13514,0.031,3.3166e-10
5.16484,0.03,-8.535e-11
5.19455,0.029,-1.1297e-10
5.22425,0.028,-4.088e-11
5.25395,0.027,-1.0116e-10
5.28366,0.026,2.1157e-10
5.31337,0.025,9.01e-12
5.34309,0.024,-3.0232e-10
5.3728,0.023,7.933e-11
5.4025,0.022,1.8477e-10
5.4322,0.021,-1.051e-11
5.4619,0.02,6.53e-11
5.4916,0.019,-1.6421e-10
5.52131,0.018,-7.137e-11
5.55102,0.017,2.9883e-10
5.58072,0.016,-6.235e-11
5.61042,0.015,-2.7786e-10
5.64012,0.014,4.876e-11
5.66982,0.013,4.689e-11
5.69952,0.012,1.0674e-10
5.72923,0.011,9.076e-11
5.75892,0.01,-2.5022e-10
5.78864,0.009,2.84e-11
5.81834,0.008,3.2519e-10
5.84804,0.007,-8.761e-11
5.87775,0.006,-1.2879e-10
5.90745,0.005,-2.573e-11
5.93714,0.004,-1.0813e-10
5.96684,0.003,2.0319e-10
5.99654,0.002,2.902e-11
6.02625,0.001,-3.009e-10
6.05594,0.0,7.588e-11
